COMPANY 		: Utah Forge
FIELD   		: Beaver (University of Utah)
SITE    		: Utah Forge
WELL   		: 16B(78)-32
WELLPATH		: 16B(78)-32
DESIGN			: 16B(78)-32 Final Surveys
MAP SYSTEM		: Universal Transverse Mercator (US Survey Feet)
GEODIC DATUM		: NAD83 Utah - HARN
MAP ZONE		: Zone 12N (114 W to 108 W)
CALCULATION METHOD	: Minimum Curvature
WELL EASTING 		: 1097907.09ft 
WELL NORTHING 		: 13987765.96ft 
VSECT DIREC 		: 106.85deg 
NORTH REF		: Grid
KB ELEV  		: 5447.65ft 
GL ELEV 		: 5415.65ft 
DATE			: 6/26/2023

SURVEY 

MD         INC       AZI       TVD        SSTVD        N/S       NORTHING       E/W        EASTING       VSEC        DLS            
(ft)      (deg)     (deg)      (ft)       (ft)         (ft)       (Ft)          (ft)        (Ft)         (ft)     (deg/100ft)  


0.00       0.00     0.00      0.00        -5447.65    0.00      13987765.96    0.00      1097907.09      0.00       0.00   
25.00      0.22     52.11     25.00       -5422.65    0.03      13987765.99    0.04      1097907.12      0.03       0.88   
50.00      0.45     52.11     50.00       -5397.65    0.12      13987766.08    0.15      1097907.24      0.11       0.92   
75.00      0.36     38.82     75.00       -5372.65    0.24      13987766.20    0.28      1097907.37      0.20       0.52   
100.00     0.14     58.33     100.00      -5347.65    0.32      13987766.28    0.36      1097907.44      0.25       0.93   
125.00     0.54     131.51    125.00      -5322.65    0.26      13987766.22    0.47      1097907.56      0.38       2.07   
150.00     0.64     102.12    150.00      -5297.65    0.15      13987766.11    0.69      1097907.78      0.62       1.26   
175.00     0.65     75.44     175.00      -5272.65    0.15      13987766.12    0.97      1097908.05      0.88       1.19   
200.00     0.44     58.93     199.99      -5247.66    0.24      13987766.20    1.19      1097908.27      1.07       1.04   
225.00     0.26     44.13     224.99      -5222.66    0.33      13987766.29    1.31      1097908.40      1.16       0.80   
250.00     0.19     119.27    249.99      -5197.66    0.35      13987766.31    1.38      1097908.47      1.22       1.12   
275.00     0.40     126.68    274.99      -5172.66    0.28      13987766.24    1.49      1097908.58      1.35       0.85   
300.00     0.55     112.24    299.99      -5147.66    0.18      13987766.14    1.67      1097908.76      1.55       0.76   
325.00     0.69     107.15    324.99      -5122.66    0.09      13987766.05    1.93      1097909.01      1.82       0.60   
350.00     0.84     80.36     349.99      -5097.66    0.08      13987766.04    2.25      1097909.34      2.13       1.53   
375.00     0.70     69.14     374.99      -5072.66    0.16      13987766.12    2.57      1097909.66      2.42       0.82   
400.00     0.52     73.07     399.99      -5047.66    0.25      13987766.21    2.83      1097909.91      2.63       0.74   
425.00     0.42     91.96     424.98      -5022.67    0.28      13987766.24    3.03      1097910.11      2.82       0.73   
450.00     0.42     109.31    449.98      -4997.67    0.25      13987766.21    3.20      1097910.29      3.00       0.51   
475.00     0.59     117.89    474.98      -4972.67    0.16      13987766.12    3.40      1097910.49      3.21       0.74   
500.00     0.88     107.57    499.98      -4947.67    0.04      13987766.00    3.70      1097910.79      3.53       1.27   
525.00     1.07     89.12     524.98      -4922.67    -0.02     13987765.94    4.12      1097911.20      3.95       1.46   
550.00     1.10     80.69     549.97      -4897.68    0.03      13987765.99    4.59      1097911.67      4.38       0.65   
575.00     0.92     68.20     574.97      -4872.68    0.14      13987766.10    5.01      1097912.10      4.76       1.13   
600.00     0.89     80.60     599.97      -4847.68    0.25      13987766.21    5.39      1097912.47      5.09       0.79   
625.00     0.88     85.61     624.96      -4822.69    0.29      13987766.25    5.77      1097912.86      5.44       0.31   
650.00     0.97     98.35     649.96      -4797.69    0.28      13987766.24    6.17      1097913.26      5.83       0.90   
675.00     1.48     95.91     674.95      -4772.70    0.21      13987766.17    6.70      1097913.79      6.35       2.05   
700.00     1.59     84.67     699.94      -4747.71    0.21      13987766.17    7.37      1097914.46      6.99       1.28   
725.00     1.44     79.09     724.94      -4722.71    0.30      13987766.26    8.02      1097915.11      7.59       0.84   
750.00     1.35     81.48     749.93      -4697.72    0.41      13987766.37    8.62      1097915.71      8.14       0.43   
775.00     1.37     85.13     774.92      -4672.73    0.47      13987766.44    9.21      1097916.30      8.68       0.36   
800.00     1.22     92.17     799.92      -4647.73    0.49      13987766.45    9.78      1097916.86      9.21       0.87   
825.00     1.37     97.63     824.91      -4622.74    0.44      13987766.40    10.34     1097917.42      9.77       0.78   
850.00     1.76     95.25     849.90      -4597.75    0.37      13987766.33    11.02     1097918.10      10.44      1.58   
875.00     1.78     87.92     874.89      -4572.76    0.34      13987766.31    11.79     1097918.87      11.18      0.91   
900.00     1.85     87.44     899.87      -4547.78    0.38      13987766.34    12.58     1097919.66      11.93      0.29   
925.00     1.76     80.97     924.86      -4522.79    0.45      13987766.42    13.36     1097920.45      12.65      0.89   
950.00     1.69     83.12     949.85      -4497.80    0.56      13987766.52    14.11     1097921.19      13.34      0.38   
975.00     1.64     83.53     974.84      -4472.81    0.64      13987766.60    14.83     1097921.91      14.00      0.21   
1000.00    1.68     86.08     999.83      -4447.82    0.71      13987766.67    15.55     1097922.63      14.67      0.34   
1025.00    1.67     88.73     1024.82     -4422.83    0.74      13987766.70    16.28     1097923.36      15.36      0.31   
1050.00    1.85     93.72     1049.81     -4397.84    0.72      13987766.69    17.04     1097924.13      16.10      0.94   
1075.00    2.24     91.88     1074.79     -4372.86    0.68      13987766.64    17.94     1097925.02      16.97      1.58   
1100.00    2.03     83.69     1099.77     -4347.88    0.71      13987766.68    18.86     1097925.95      17.85      1.48   
1125.00    1.79     83.37     1124.76     -4322.89    0.81      13987766.77    19.69     1097926.78      18.61      0.96   
1150.00    1.83     92.60     1149.75     -4297.90    0.83      13987766.80    20.48     1097927.56      19.36      1.18   
1175.00    2.07     95.76     1174.73     -4272.92    0.77      13987766.73    21.33     1097928.41      20.19      1.05   
1200.00    1.83     93.18     1199.72     -4247.93    0.70      13987766.67    22.17     1097929.26      21.02      1.02   
1225.00    1.22     85.74     1224.71     -4222.94    0.70      13987766.66    22.84     1097929.92      21.65      2.56   
1250.00    0.57     87.60     1249.71     -4197.94    0.73      13987766.69    23.23     1097930.31      22.02      2.60   
1275.00    0.39     95.12     1274.71     -4172.94    0.72      13987766.69    23.44     1097930.52      22.22      0.76   
1300.00    0.23     87.94     1299.71     -4147.94    0.72      13987766.68    23.57     1097930.66      22.35      0.66   
1325.00    0.14     152.75    1324.71     -4122.94    0.69      13987766.65    23.64     1097930.72      22.42      0.85   
1350.00    0.33     127.31    1349.71     -4097.94    0.62      13987766.58    23.71     1097930.79      22.51      0.85   
1375.00    0.46     106.77    1374.70     -4072.95    0.55      13987766.51    23.86     1097930.95      22.68      0.76   
1400.00    0.62     73.81     1399.70     -4047.95    0.56      13987766.52    24.09     1097931.17      22.89      1.37   
1425.00    0.52     59.26     1424.70     -4022.95    0.65      13987766.62    24.31     1097931.40      23.08      0.70   
1450.00    0.37     34.29     1449.70     -3997.95    0.78      13987766.74    24.46     1097931.54      23.18      0.97   
1475.00    0.15     331.37    1474.70     -3972.95    0.87      13987766.84    24.49     1097931.57      23.18      1.32   
1500.00    0.50     112.05    1499.70     -3947.95    0.86      13987766.82    24.57     1097931.66      23.27      2.49   
1525.00    0.54     64.38     1524.70     -3922.95    0.87      13987766.83    24.78     1097931.87      23.46      1.69   
1550.00    0.26     47.98     1549.70     -3897.95    0.96      13987766.92    24.93     1097932.01      23.58      1.20   
1575.00    0.26     124.60    1574.70     -3872.95    0.97      13987766.93    25.02     1097932.10      23.66      1.29   
1600.00    0.73     95.79     1599.70     -3847.95    0.92      13987766.88    25.22     1097932.31      23.87      2.07   
1625.00    0.60     74.68     1624.70     -3822.95    0.94      13987766.90    25.51     1097932.59      24.14      1.10   
1650.00    0.60     73.49     1649.70     -3797.95    1.01      13987766.97    25.76     1097932.84      24.36      0.05   
1675.00    0.44     80.68     1674.69     -3772.96    1.06      13987767.02    25.98     1097933.06      24.56      0.69   
1700.00    0.69     93.99     1699.69     -3747.96    1.07      13987767.03    26.22     1097933.31      24.79      1.12   
1725.00    0.64     108.67    1724.69     -3722.96    1.01      13987766.97    26.51     1097933.59      25.07      0.71   
1750.00    1.15     119.45    1749.69     -3697.96    0.84      13987766.80    26.86     1097933.94      25.46      2.14   
1775.00    1.09     96.52     1774.68     -3672.97    0.69      13987766.65    27.31     1097934.40      25.94      1.80   
1800.00    0.81     114.26    1799.68     -3647.97    0.59      13987766.55    27.71     1097934.79      26.35      1.61   
1825.00    1.24     109.58    1824.68     -3622.97    0.43      13987766.39    28.12     1097935.21      26.79      1.75   
1850.00    0.81     118.64    1849.67     -3597.98    0.25      13987766.22    28.53     1097935.62      27.24      1.83   
1875.00    1.20     124.87    1874.67     -3572.98    0.02      13987765.98    28.90     1097935.99      27.66      1.62   
1900.00    1.08     128.11    1899.66     -3547.99    -0.27     13987765.69    29.30     1097936.39      28.13      0.54   
1925.00    0.97     142.35    1924.66     -3522.99    -0.59     13987765.37    29.62     1097936.71      28.52      1.11   
1950.00    0.91     158.10    1949.66     -3497.99    -0.94     13987765.02    29.82     1097936.91      28.81      1.06   
1975.00    0.81     187.42    1974.65     -3473.00    -1.30     13987764.66    29.87     1097936.96      28.97      1.78   
2000.00    0.84     206.25    1999.65     -3448.00    -1.64     13987764.32    29.77     1097936.86      28.97      1.09   
2025.00    0.88     192.96    2024.65     -3423.00    -1.99     13987763.97    29.65     1097936.73      28.95      0.81   
2050.00    0.71     238.52    2049.65     -3398.00    -2.26     13987763.70    29.47     1097936.56      28.86      2.54   
2075.00    1.20     230.46    2074.64     -3373.01    -2.51     13987763.46    29.14     1097936.22      28.61      2.03   
2100.00    1.15     213.31    2099.64     -3348.01    -2.88     13987763.08    28.80     1097935.88      28.40      1.42   
2125.00    0.96     209.74    2124.63     -3323.02    -3.27     13987762.69    28.56     1097935.64      28.28      0.80   
2150.00    0.65     229.80    2149.63     -3298.02    -3.55     13987762.41    28.34     1097935.43      28.15      1.66   
2175.00    0.97     219.10    2174.63     -3273.02    -3.80     13987762.16    28.10     1097935.19      28.00      1.41   
2200.00    0.76     207.02    2199.63     -3248.02    -4.11     13987761.85    27.89     1097934.98      27.89      1.11   
2225.00    0.71     199.97    2224.62     -3223.03    -4.41     13987761.55    27.76     1097934.85      27.85      0.41   
2250.00    0.84     180.93    2249.62     -3198.03    -4.74     13987761.23    27.71     1097934.79      27.89      1.15   
2275.00    0.87     204.99    2274.62     -3173.03    -5.09     13987760.87    27.63     1097934.71      27.92      1.43   
2300.00    0.84     211.64    2299.62     -3148.03    -5.42     13987760.54    27.45     1097934.54      27.84      0.41   
2325.00    1.11     207.93    2324.61     -3123.04    -5.79     13987760.17    27.24     1097934.33      27.75      1.11   
2350.00    1.23     204.99    2349.61     -3098.04    -6.25     13987759.71    27.01     1097934.10      27.66      0.54   
2375.00    0.84     187.87    2374.60     -3073.05    -6.67     13987759.29    26.87     1097933.96      27.65      1.97   
2400.00    0.76     208.12    2399.60     -3048.05    -7.00     13987758.96    26.77     1097933.86      27.65      1.17   
2425.00    1.04     219.68    2424.60     -3023.05    -7.32     13987758.64    26.55     1097933.63      27.53      1.33   
2450.00    1.21     210.79    2449.59     -2998.06    -7.72     13987758.24    26.27     1097933.35      27.38      0.97   
2475.00    1.04     192.72    2474.59     -2973.06    -8.17     13987757.79    26.08     1097933.17      27.33      1.56   
2500.00    1.00     208.44    2499.58     -2948.07    -8.58     13987757.38    25.93     1097933.02      27.30      1.13   
2525.00    1.09     187.83    2524.58     -2923.07    -9.01     13987756.95    25.79     1097932.88      27.30      1.54   
2550.00    0.76     213.73    2549.58     -2898.07    -9.38     13987756.58    25.67     1097932.75      27.29      2.10   
2575.00    0.96     210.63    2574.57     -2873.08    -9.70     13987756.26    25.47     1097932.56      27.19      0.82   
2600.00    1.16     200.62    2599.57     -2848.08    -10.12    13987755.84    25.27     1097932.36      27.12      1.09   
2625.00    1.04     210.58    2624.56     -2823.09    -10.55    13987755.41    25.07     1097932.16      27.05      0.90   
2650.00    1.03     221.52    2649.56     -2798.09    -10.91    13987755.05    24.80     1097931.89      26.90      0.79   
2675.00    1.25     256.28    2674.56     -2773.09    -11.15    13987754.81    24.39     1097931.48      26.57      2.85   
2700.00    1.29     254.86    2699.55     -2748.10    -11.29    13987754.68    23.85     1097930.94      26.10      0.20   
2725.00    1.46     259.88    2724.54     -2723.11    -11.41    13987754.55    23.27     1097930.36      25.58      0.83   
2750.00    1.44     253.95    2749.53     -2698.12    -11.56    13987754.40    22.65     1097929.74      25.03      0.61   
2775.00    1.20     250.69    2774.53     -2673.12    -11.73    13987754.23    22.10     1097929.19      24.56      1.01   
2800.00    0.90     255.68    2799.52     -2648.13    -11.87    13987754.10    21.67     1097928.75      24.18      1.25   
2825.00    1.01     280.25    2824.52     -2623.13    -11.88    13987754.09    21.26     1097928.35      23.79      1.68   
2850.00    1.03     284.67    2849.52     -2598.13    -11.78    13987754.18    20.83     1097927.91      23.35      0.32   
2875.00    1.17     282.11    2874.51     -2573.14    -11.67    13987754.29    20.36     1097927.45      22.87      0.59   
2900.00    1.13     283.34    2899.51     -2548.14    -11.56    13987754.40    19.87     1097926.96      22.37      0.19   
2925.00    1.01     271.93    2924.50     -2523.15    -11.49    13987754.47    19.41     1097926.50      21.91      0.98   
2950.00    0.65     279.18    2949.50     -2498.15    -11.46    13987754.50    19.05     1097926.14      21.55      1.50   
2975.00    0.87     303.93    2974.50     -2473.15    -11.34    13987754.63    18.75     1097925.84      21.23      1.56   
3000.00    1.01     284.44    2999.49     -2448.16    -11.17    13987754.79    18.38     1097925.47      20.83      1.39   
3025.00    0.61     286.05    3024.49     -2423.16    -11.08    13987754.88    18.04     1097925.13      20.48      1.60   
3050.00    0.71     301.26    3049.49     -2398.16    -10.97    13987755.00    17.78     1097924.87      20.20      0.80   
3075.00    0.84     275.53    3074.49     -2373.16    -10.87    13987755.09    17.46     1097924.55      19.87      1.47   
3100.00    0.61     293.64    3099.49     -2348.16    -10.80    13987755.16    17.16     1097924.25      19.55      1.29   
3125.00    0.78     311.23    3124.48     -2323.17    -10.63    13987755.33    16.91     1097924.00      19.27      1.08   
3150.00    0.77     279.28    3149.48     -2298.17    -10.49    13987755.47    16.62     1097923.70      18.94      1.71   
3175.00    0.71     320.79    3174.48     -2273.17    -10.35    13987755.62    16.35     1097923.44      18.65      2.11   
3200.00    0.91     300.34    3199.48     -2248.17    -10.12    13987755.84    16.08     1097923.17      18.33      1.39   
3225.00    0.52     282.31    3224.48     -2223.17    -10.00    13987755.96    15.80     1097922.89      18.02      1.78   
3250.00    0.68     314.84    3249.47     -2198.18    -9.87     13987756.09    15.59     1097922.67      17.78      1.48   
3275.00    0.45     329.64    3274.47     -2173.18    -9.68     13987756.28    15.43     1097922.52      17.58      1.08   
3300.00    0.56     330.00    3299.47     -2148.18    -9.49     13987756.47    15.32     1097922.41      17.41      0.44   
3325.00    0.47     322.18    3324.47     -2123.18    -9.30     13987756.66    15.20     1097922.28      17.24      0.46   
3350.00    0.35     336.04    3349.47     -2098.18    -9.15     13987756.81    15.10     1097922.19      17.11      0.62   
3375.00    0.24     4.68      3374.47     -2073.18    -9.03     13987756.93    15.08     1097922.16      17.05      0.72   
3400.00    0.37     63.06     3399.47     -2048.18    -8.94     13987757.02    15.15     1097922.24      17.09      1.27   
3425.00    0.46     101.84    3424.47     -2023.18    -8.93     13987757.03    15.32     1097922.41      17.25      1.15   
3450.00    0.50     109.13    3449.47     -1998.18    -8.98     13987756.98    15.52     1097922.61      17.46      0.29   
3475.00    0.82     99.96     3474.47     -1973.18    -9.05     13987756.91    15.80     1097922.89      17.75      1.34   
3500.00    0.58     113.04    3499.46     -1948.19    -9.13     13987756.83    16.10     1097923.18      18.05      1.15   
3525.00    0.97     104.22    3524.46     -1923.19    -9.23     13987756.73    16.42     1097923.50      18.39      1.63   
3550.00    0.70     87.67     3549.46     -1898.19    -9.28     13987756.68    16.77     1097923.86      18.74      1.44   
3575.00    0.86     82.09     3574.46     -1873.19    -9.25     13987756.72    17.11     1097924.20      19.06      0.71   
3600.00    0.75     95.48     3599.46     -1848.19    -9.24     13987756.73    17.46     1097924.55      19.39      0.87   
3625.00    0.50     124.27    3624.45     -1823.20    -9.31     13987756.65    17.71     1097924.80      19.65      1.58   
3650.00    0.80     109.58    3649.45     -1798.20    -9.43     13987756.53    17.97     1097925.06      19.93      1.36   
3675.00    0.67     114.35    3674.45     -1773.20    -9.55     13987756.41    18.27     1097925.35      20.25      0.57   
3700.00    0.74     97.06     3699.45     -1748.20    -9.63     13987756.33    18.56     1097925.65      20.56      0.89   
3725.00    0.74     101.53    3724.45     -1723.20    -9.68     13987756.28    18.88     1097925.96      20.88      0.23   
3750.00    0.63     78.68     3749.44     -1698.21    -9.69     13987756.27    19.17     1097926.26      21.16      1.17   
3775.00    0.55     107.07    3774.44     -1673.21    -9.70     13987756.26    19.42     1097926.51      21.40      1.20   
3800.00    0.59     86.48     3799.44     -1648.21    -9.72     13987756.24    19.66     1097926.75      21.64      0.83   
